Pod Number   Feed Number     Probe A Polarization Angle (deg)    Probe B Polarization Angle (deg) 
1   1   -44.9494    44.949399
1   2   -44.866042  45.086059
1   3   -45.086069  44.866029
1   4   43.764429   133.837685
1   5   43.817384   133.9932
1   6   -43.817373  46.00682
1   7   -43.771363  46.162338
1   8   -44.994266  44.994256
1   9   42.642185   132.812654
1   10  -42.639037  47.187404
2   1   -44.447797  45.589611
2   2   -44.550245  45.425881
2   3   44.691255   134.619198
2   4   -42.29957   47.883573
2   5   -41.329823  48.783092
2   6   -42.525348  47.513205
2   7   44.363486   134.360651
2   8   -44.4723    45.495602
2   9   -42.186725  48.070435
2   10  -43.763499  46.272998
3   1   -40.336326  49.725227
3   2   -34.210678  55.900871
3   3   -37.413005  52.5871
3   4   -41.55719   48.409117
3   5   -41.464668  48.547194
3   6   -40.297002  49.846774
3   7   -36.158135  54.050169
3   8   -32.251425  57.746339
3   9   -40.713746  49.285503
3   10  -40.102187  50.153189
4   1   -44.92807   44.92807
4   2   -45.106673  44.855385
4   3   -44.855409  45.106674
4   4   -42.64936   47.208852
4   5   -42.75197   47.033333
4   6   42.751963   132.966746
4   7   43.647236   133.792718
4   8   -45.004126  45.004102
4   9   -40.48685   49.359871
4   10  40.487169   130.64001
5   1   39.350248   129.282172
5   2   36.428795   126.410582
5   3   36.18888    126.096748
5   4   38.164424   127.963991
5   5   40.293824   130.145388
5   6   40.482927   130.461347
5   7   41.560362   131.590239
5   8   31.258056   121.247937
5   9   40.096453   129.859171
5   10  41.711967   131.714964
6   1   -45.589623  44.447808
6   2   -44.69127   45.380804
6   3   -45.425912  44.550208
6   4   -44.363515  45.639343
6   5   42.525336   132.480813
6   6   40.328905   130.218165
6   7   42.299573   132.116467
6   8   -45.495645  44.474607
6   9   43.76348    133.727003
6   10  42.186219   131.930153
7   1   35.190626   126.037919
7   2   34.33402    124.99365
7   3   33.171102   123.875781
7   4   33.035658   123.914518
7   5   36.065111   127.089432
7   6   37.212077   128.223405
7   7   36.360843   127.183666
7   8   33.318864   123.825587
7   9   26.87271    118.032278
7   10  40.342095   131.350451
8   1   -44.733862  44.766304
8   2   42.592625   133.251903
8   3   -42.594338  46.745008
8   4   -41.578738  47.921242
8   5   -42.736751  46.914277
8   6   42.756422   133.09634
8   7   41.581354   132.092462
8   8   -44.561194  44.583934
8   9   -39.531142  50.075586
8   10  39.549377   129.939031
9   1   -34.175901  54.945738
9   2   -32.176794  57.141721
9   3   -33.317436  56.004466
9   4   -36.354456  52.836314
9   5   -36.193973  52.765303
9   6   -36.060853  52.895357
9   7   -32.034254  57.075056
9   8   -33.302504  56.191516
9   9   -40.338255  48.651018
9   10  -25.852565  62.963152
10  1   0.294688    89.399895
10  2   -10.782431  78.208921
10  3   -16.622937  72.359652
10  4   2.535709    91.474075
10  5   -1.630961   87.579003
10  6   8.145554    97.485612
10  7   -26.995183  62.374263
10  8   -21.694571  67.174516
10  9   24.579432   113.696786
10  10  -29.157196  60.445873
11  1   38.241424   127.841216
11  2   41.45261    130.96169
11  3   42.139275   131.845225
11  4   42.931238   132.762587
11  5   33.068682   122.720279
11  6   30.34654    119.791649
11  7   35.520643   124.920765
11  8   -43.0191    47.335008
11  9   -38.242484  51.656965
11  10  34.586992   123.905334
12  1   44.087775   133.231408
12  2   40.893113   130.0955
12  3   37.195815   126.143356
12  4   43.425894   132.28684
12  5   43.343092   132.361037
12  6   45.057073   134.269
12  7   41.813597   131.130771
12  8   34.978021   124.030461
12  9   44.654079   133.429504
12  10  -43.847174  46.733263
13  1   -39.47522   51.39529
13  2   -34.377168  56.688474
13  3   -32.499039  58.358759
13  4   -34.635142  56.11155
13  5   -39.625324  51.168529
13  6   -41.509951  49.481248
13  7   -37.389277  53.742338
13  8   -31.363755  59.624494
13  9   -37.74775   52.867793
13  10  -41.425885  49.799995
14  1   -30.764152  59.660853
14  2   -32.90268   57.458036
14  3   -33.729415  56.774149
14  4   -29.651593  61.042274
14  5   -26.663774  63.948796
14  6   -29.789664  60.539117
14  7   -28.968606  61.348221
14  8   -35.885827  54.571899
14  9   -28.475127  62.285736
14  10  -25.030347  65.233064
15  1   -12.759526  78.046988
15  2   -3.733775   87.421231
15  3   -1.945811   89.03423
15  4   -9.981817   80.665704
15  5   -20.801369  69.706528
15  6   -22.590857  68.062576
15  7   -18.520789  72.369906
15  8   -3.824349   87.310967
15  9   -18.99823   71.322626
15  10  -20.467278  70.48357
16  1   -17.123548  72.902296
16  2   12.347003   103.039375
16  3   -21.013205  69.054223
16  4   20.651862   111.773287
16  5   8.542727    99.610871
16  6   33.131097   124.357085
16  7   -34.09629   55.195893
16  8   -24.149678  65.815135
16  9   6.795834    98.028833
16  10  39.799663   130.983459
17  1   -44.695253  44.690741
17  2   -42.438207  46.786671
17  3   38.470834   129.205647
17  4   -36.00591   53.359156
17  5   42.63204    133.042314
17  6   -41.647857  47.9549
17  7   37.01009    127.639699
17  8   -42.499703  46.499908
17  9   34.39302    124.680696
17  10  -33.408222  56.322987
18  1   17.139126   107.105653
18  2   20.035988   109.923235
18  3   -12.346171  76.95692
18  4   35.094647   125.805401
18  5   -35.111836  53.658649
18  6   -10.511993  78.371635
18  7   -26.636442  62.247218
18  8   25.140088   115.216716
18  9   -37.801842  51.028659
18  10  -6.779038   81.98428
19  1   12.736717   101.987764
19  2   2.93276 91.987607
19  3   4.731128    93.595756
19  4   18.500386   107.64192
19  5   21.607144   110.934593
19  6   20.799846   110.313783
19  7   10.948801   100.367557
19  8   3.839162    92.692051
19  9   20.458657   109.531659
19  10  19.016258   108.69818
20  1   30.778129   120.339837
20  2   32.751148   122.23631
20  3   32.911982   122.573193
20  4   28.969277   118.671926
20  5   29.813694   119.471192
20  6   26.649178   116.063807
20  7   29.619212   118.966098
20  8   34.902812   124.450806
20  9   25.063322   114.786376
20  10  27.491176   116.725017
21  1   38.491174   127.593144
21  2   32.509706   121.649601
21  3   34.376399   123.310658
21  4   37.387159   126.267593
21  5   40.507691   129.529472
21  6   39.617605   128.843279
21  7   34.610635   123.928873
21  8   31.362423   120.403243
21  9   41.444069   130.203665
21  10  37.771586   127.148488
22  1   -44.10522   46.778318
22  2   -37.185734  53.836295
22  3   -40.874702  49.905593
22  4   -41.809103  48.872533
22  5   -46.018467  44.727253
22  6   -43.344209  47.647068
22  7   -43.404356  47.69887
22  8   -33.978082  56.985846
22  9   42.854552   132.288535
22  10  -44.660525  46.562781
23  1   -38.236945  52.173946
23  2   -42.133061  48.154113
23  3   -41.431842  49.04723
23  4   -34.519596  56.066412
23  5   -28.345754  62.21402
23  6   -32.064637  58.291704
23  7   -42.916394  47.240835
23  8   43.042196   132.676398
23  9   -35.585579  55.094619
23  10  39.259332   129.338419
24  1   -0.288681   90.60147
24  2   17.644921   108.642387
24  3   12.816693   103.771853
24  4   27.001647   117.629759
24  5   -4.150253   86.521356
24  6   2.608403    93.432805
24  7   1.485767    92.540943
24  8   21.687053   112.832633
24  9   29.150936   119.559998
24  10  -25.565118  65.289781
